#  E (eV)   dos(E)     Int dos(E) EFermi =    6.651 eV
  -5.759  0.0000E+00  0.0000E+00
  -5.709  0.1470E-01  0.2449E-03
  -5.659  0.1184E+00  0.2266E-02
  -5.609  0.9936E-01  0.7588E-02
  -5.559  0.1258E+00  0.1320E-01
  -5.509  0.1574E+00  0.2022E-01
  -5.459  0.1896E+00  0.2900E-01
  -5.409  0.1862E+00  0.3864E-01
  -5.359  0.1990E+00  0.4820E-01
  -5.309  0.2168E+00  0.5859E-01
  -5.259  0.2368E+00  0.6992E-01
  -5.209  0.2575E+00  0.8227E-01
  -5.159  0.2700E+00  0.9557E-01
  -5.109  0.2801E+00  0.1093E+00
  -5.059  0.2891E+00  0.1236E+00
  -5.009  0.2951E+00  0.1382E+00
  -4.959  0.3057E+00  0.1532E+00
  -4.909  0.3214E+00  0.1688E+00
  -4.859  0.3379E+00  0.1853E+00
  -4.809  0.3549E+00  0.2026E+00
  -4.759  0.3670E+00  0.2207E+00
  -4.709  0.3705E+00  0.2392E+00
  -4.659  0.3815E+00  0.2580E+00
  -4.609  0.3914E+00  0.2773E+00
  -4.559  0.4016E+00  0.2971E+00
  -4.509  0.4112E+00  0.3175E+00
  -4.459  0.4215E+00  0.3383E+00
  -4.409  0.4351E+00  0.3597E+00
  -4.359  0.4502E+00  0.3818E+00
  -4.309  0.4663E+00  0.4047E+00
  -4.259  0.4805E+00  0.4284E+00
  -4.209  0.4894E+00  0.4526E+00
  -4.159  0.4982E+00  0.4773E+00
  -4.109  0.5093E+00  0.5025E+00
  -4.059  0.5239E+00  0.5283E+00
  -4.009  0.5384E+00  0.5549E+00
  -3.959  0.5533E+00  0.5822E+00
  -3.909  0.5687E+00  0.6102E+00
  -3.859  0.5847E+00  0.6391E+00
  -3.809  0.6049E+00  0.6688E+00
  -3.759  0.6281E+00  0.6996E+00
  -3.709  0.6542E+00  0.7316E+00
  -3.659  0.6819E+00  0.7650E+00
  -3.609  0.7114E+00  0.7998E+00
  -3.559  0.7457E+00  0.8363E+00
  -3.509  0.8384E+00  0.8749E+00
  -3.459  0.8996E+00  0.9185E+00
  -3.409  0.9134E+00  0.9641E+00
  -3.359  0.8766E+00  0.1009E+01
  -3.309  0.8658E+00  0.1052E+01
  -3.259  0.8577E+00  0.1095E+01
  -3.209  0.8491E+00  0.1138E+01
  -3.159  0.8267E+00  0.1180E+01
  -3.109  0.8187E+00  0.1221E+01
  -3.059  0.8178E+00  0.1262E+01
  -3.009  0.8004E+00  0.1302E+01
  -2.959  0.7717E+00  0.1342E+01
  -2.909  0.7495E+00  0.1380E+01
  -2.859  0.7263E+00  0.1417E+01
  -2.809  0.7064E+00  0.1452E+01
  -2.759  0.6899E+00  0.1487E+01
  -2.709  0.6770E+00  0.1521E+01
  -2.659  0.6647E+00  0.1555E+01
  -2.609  0.6514E+00  0.1588E+01
  -2.559  0.6371E+00  0.1620E+01
  -2.509  0.6667E+00  0.1652E+01
  -2.459  0.6083E+00  0.1684E+01
  -2.409  0.5963E+00  0.1714E+01
  -2.359  0.5836E+00  0.1744E+01
  -2.309  0.5703E+00  0.1773E+01
  -2.259  0.5563E+00  0.1801E+01
  -2.209  0.5476E+00  0.1828E+01
  -2.159  0.5345E+00  0.1855E+01
  -2.109  0.5126E+00  0.1882E+01
  -2.059  0.4678E+00  0.1906E+01
  -2.009  0.4007E+00  0.1928E+01
  -1.959  0.3209E+00  0.1946E+01
  -1.909  0.2633E+00  0.1961E+01
  -1.859  0.2103E+00  0.1972E+01
  -1.809  0.1621E+00  0.1982E+01
  -1.759  0.1186E+00  0.1989E+01
  -1.709  0.8083E-01  0.1994E+01
  -1.659  0.4983E-01  0.1997E+01
  -1.609  0.2569E-01  0.1999E+01
  -1.559  0.1347E-01  0.2000E+01
  -1.509  0.1362E-01  0.2000E+01
  -1.459  0.2370E-01  0.2001E+01
  -1.409  0.4476E-01  0.2003E+01
  -1.359  0.7292E-01  0.2006E+01
  -1.309  0.1068E+00  0.2010E+01
  -1.259  0.1444E+00  0.2017E+01
  -1.209  0.1858E+00  0.2025E+01
  -1.159  0.2308E+00  0.2035E+01
  -1.109  0.2795E+00  0.2048E+01
  -1.059  0.3320E+00  0.2063E+01
  -1.009  0.4093E+00  0.2082E+01
  -0.959  0.4873E+00  0.2104E+01
  -0.909  0.5412E+00  0.2130E+01
  -0.859  0.5799E+00  0.2158E+01
  -0.809  0.6121E+00  0.2188E+01
  -0.759  0.6514E+00  0.2219E+01
  -0.709  0.7320E+00  0.2254E+01
  -0.659  0.9487E+00  0.2294E+01
  -0.609  0.1280E+01  0.2348E+01
  -0.559  0.1487E+01  0.2422E+01
  -0.509  0.1460E+01  0.2495E+01
  -0.459  0.1379E+01  0.2566E+01
  -0.409  0.1272E+01  0.2632E+01
  -0.359  0.1148E+01  0.2693E+01
  -0.309  0.1018E+01  0.2747E+01
  -0.259  0.9123E+00  0.2795E+01
  -0.209  0.8342E+00  0.2839E+01
  -0.159  0.7802E+00  0.2879E+01
  -0.109  0.7365E+00  0.2917E+01
  -0.059  0.6995E+00  0.2953E+01
  -0.009  0.6649E+00  0.2987E+01
   0.041  0.6324E+00  0.3019E+01
   0.091  0.6032E+00  0.3050E+01
   0.141  0.5772E+00  0.3080E+01
   0.191  0.5539E+00  0.3108E+01
   0.241  0.5351E+00  0.3135E+01
   0.291  0.5171E+00  0.3161E+01
   0.341  0.4998E+00  0.3187E+01
   0.391  0.4832E+00  0.3211E+01
   0.441  0.4673E+00  0.3235E+01
   0.491  0.4521E+00  0.3258E+01
   0.541  0.4392E+00  0.3280E+01
   0.591  0.4284E+00  0.3302E+01
   0.641  0.4160E+00  0.3323E+01
   0.691  0.4032E+00  0.3344E+01
   0.741  0.3901E+00  0.3364E+01
   0.791  0.3776E+00  0.3383E+01
   0.841  0.3659E+00  0.3401E+01
   0.891  0.3549E+00  0.3419E+01
   0.941  0.3446E+00  0.3437E+01
   0.991  0.3348E+00  0.3454E+01
   1.041  0.3251E+00  0.3470E+01
   1.091  0.3160E+00  0.3486E+01
   1.141  0.3074E+00  0.3502E+01
   1.191  0.2994E+00  0.3517E+01
   1.241  0.2921E+00  0.3532E+01
   1.291  0.2856E+00  0.3546E+01
   1.341  0.2789E+00  0.3560E+01
   1.391  0.2737E+00  0.3574E+01
   1.441  0.2678E+00  0.3588E+01
   1.491  0.2609E+00  0.3601E+01
   1.541  0.2529E+00  0.3614E+01
   1.591  0.2447E+00  0.3626E+01
   1.641  0.2369E+00  0.3638E+01
   1.691  0.2295E+00  0.3650E+01
   1.741  0.2225E+00  0.3661E+01
   1.791  0.2159E+00  0.3672E+01
   1.841  0.2308E+00  0.3683E+01
   1.891  0.2826E+00  0.3696E+01
   1.941  0.3712E+00  0.3712E+01
   1.991  0.7471E+00  0.3741E+01
   2.041  0.9913E+00  0.3785E+01
   2.091  0.1154E+01  0.3839E+01
   2.141  0.1249E+01  0.3899E+01
   2.191  0.1259E+01  0.3962E+01
   2.241  0.1218E+01  0.4024E+01
   2.291  0.1169E+01  0.4084E+01
   2.341  0.1145E+01  0.4142E+01
   2.391  0.1131E+01  0.4198E+01
   2.441  0.1130E+01  0.4255E+01
   2.491  0.1091E+01  0.4311E+01
   2.541  0.1050E+01  0.4364E+01
   2.591  0.1039E+01  0.4417E+01
   2.641  0.1047E+01  0.4468E+01
   2.691  0.1015E+01  0.4520E+01
   2.741  0.1017E+01  0.4571E+01
   2.791  0.1026E+01  0.4622E+01
   2.841  0.1037E+01  0.4674E+01
   2.891  0.1056E+01  0.4726E+01
   2.941  0.1078E+01  0.4779E+01
   2.991  0.1105E+01  0.4834E+01
   3.041  0.1262E+01  0.4892E+01
   3.091  0.1213E+01  0.4953E+01
   3.141  0.1249E+01  0.5014E+01
   3.191  0.1297E+01  0.5078E+01
   3.241  0.1354E+01  0.5144E+01
   3.291  0.1444E+01  0.5214E+01
   3.341  0.1572E+01  0.5290E+01
   3.391  0.1570E+01  0.5368E+01
   3.441  0.1530E+01  0.5446E+01
   3.491  0.1505E+01  0.5522E+01
   3.541  0.1510E+01  0.5597E+01
   3.591  0.1569E+01  0.5674E+01
   3.641  0.1532E+01  0.5751E+01
   3.691  0.1496E+01  0.5827E+01
   3.741  0.1469E+01  0.5901E+01
   3.791  0.1441E+01  0.5974E+01
   3.841  0.1468E+01  0.6046E+01
   3.891  0.1418E+01  0.6119E+01
   3.941  0.1395E+01  0.6189E+01
   3.991  0.1374E+01  0.6258E+01
   4.041  0.1373E+01  0.6327E+01
   4.091  0.1380E+01  0.6396E+01
   4.141  0.1356E+01  0.6464E+01
   4.191  0.1344E+01  0.6532E+01
   4.241  0.1338E+01  0.6599E+01
   4.291  0.1328E+01  0.6666E+01
   4.341  0.1364E+01  0.6732E+01
   4.391  0.1363E+01  0.6801E+01
   4.441  0.1303E+01  0.6867E+01
   4.491  0.1285E+01  0.6932E+01
   4.541  0.1270E+01  0.6996E+01
   4.591  0.1326E+01  0.7060E+01
   4.641  0.1294E+01  0.7126E+01
   4.691  0.1252E+01  0.7190E+01
   4.741  0.1225E+01  0.7251E+01
   4.791  0.1193E+01  0.7312E+01
   4.841  0.1207E+01  0.7372E+01
   4.891  0.1164E+01  0.7431E+01
   4.941  0.1102E+01  0.7489E+01
   4.991  0.9701E+00  0.7541E+01
   5.041  0.8425E+00  0.7586E+01
   5.091  0.7679E+00  0.7626E+01
   5.141  0.7028E+00  0.7663E+01
   5.191  0.6454E+00  0.7696E+01
   5.241  0.6020E+00  0.7727E+01
   5.291  0.5825E+00  0.7757E+01
   5.341  0.5475E+00  0.7785E+01
   5.391  0.5343E+00  0.7813E+01
   5.441  0.4632E+00  0.7837E+01
   5.491  0.4079E+00  0.7859E+01
   5.541  0.3796E+00  0.7878E+01
   5.591  0.3659E+00  0.7897E+01
   5.641  0.3377E+00  0.7915E+01
   5.691  0.3052E+00  0.7931E+01
   5.741  0.2709E+00  0.7945E+01
   5.791  0.2322E+00  0.7958E+01
   5.841  0.1886E+00  0.7968E+01
   5.891  0.1590E+00  0.7977E+01
   5.941  0.1315E+00  0.7984E+01
   5.991  0.1033E+00  0.7990E+01
   6.041  0.7443E-01  0.7995E+01
   6.091  0.4107E-01  0.7998E+01
   6.141  0.1254E-01  0.8000E+01
   6.191  0.4548E-03  0.8000E+01
   6.241  0.0000E+00  0.8000E+01
   6.291  0.0000E+00  0.8000E+01
   6.341  0.0000E+00  0.8000E+01
   6.391  0.0000E+00  0.8000E+01
   6.441  0.0000E+00  0.8000E+01
   6.491  0.0000E+00  0.8000E+01
   6.541  0.0000E+00  0.8000E+01
   6.591  0.0000E+00  0.8000E+01
   6.641  0.0000E+00  0.8000E+01
   6.691  0.0000E+00  0.8000E+01
   6.741  0.0000E+00  0.8000E+01
   6.791  0.5895E-03  0.8000E+01
   6.841  0.9928E-02  0.8000E+01
   6.891  0.3062E-01  0.8001E+01
   6.941  0.6852E-01  0.8004E+01
   6.991  0.1300E+00  0.8009E+01
   7.041  0.1588E+00  0.8016E+01
   7.091  0.1959E+00  0.8025E+01
   7.141  0.2232E+00  0.8035E+01
   7.191  0.2522E+00  0.8047E+01
   7.241  0.2825E+00  0.8060E+01
   7.291  0.3139E+00  0.8075E+01
   7.341  0.3457E+00  0.8092E+01
   7.391  0.3905E+00  0.8110E+01
   7.441  0.4461E+00  0.8131E+01
   7.491  0.5003E+00  0.8155E+01
   7.541  0.6346E+00  0.8183E+01
   7.591  0.5376E+00  0.8209E+01
   7.641  0.5617E+00  0.8237E+01
   7.691  0.5849E+00  0.8265E+01
   7.741  0.6087E+00  0.8295E+01
   7.791  0.6371E+00  0.8326E+01
   7.841  0.6709E+00  0.8359E+01
   7.891  0.7080E+00  0.8393E+01
   7.941  0.8037E+00  0.8431E+01
   7.991  0.8158E+00  0.8472E+01
   8.041  0.8676E+00  0.8514E+01
   8.091  0.9204E+00  0.8558E+01
   8.141  0.9809E+00  0.8606E+01
   8.191  0.1056E+01  0.8657E+01
   8.241  0.1220E+01  0.8713E+01
   8.291  0.1526E+01  0.8787E+01
   8.341  0.1616E+01  0.8866E+01
   8.391  0.1673E+01  0.8949E+01
   8.441  0.1732E+01  0.9033E+01
   8.491  0.1810E+01  0.9122E+01
   8.541  0.2057E+01  0.9223E+01
   8.591  0.2059E+01  0.9325E+01
   8.641  0.2025E+01  0.9428E+01
   8.691  0.1956E+01  0.9527E+01
   8.741  0.1862E+01  0.9623E+01
   8.791  0.1735E+01  0.9713E+01
   8.841  0.1495E+01  0.9793E+01
   8.891  0.1349E+01  0.9864E+01
   8.941  0.1221E+01  0.9928E+01
   8.991  0.1111E+01  0.9987E+01
   9.041  0.1024E+01  0.1004E+02
   9.091  0.9547E+00  0.1009E+02
   9.141  0.8947E+00  0.1014E+02
   9.191  0.8471E+00  0.1018E+02
   9.241  0.8238E+00  0.1022E+02
   9.291  0.8085E+00  0.1026E+02
   9.341  0.8332E+00  0.1030E+02
   9.391  0.1047E+01  0.1035E+02
   9.441  0.1196E+01  0.1041E+02
   9.491  0.1576E+01  0.1047E+02
   9.541  0.1759E+01  0.1056E+02
   9.591  0.1812E+01  0.1065E+02
   9.641  0.1964E+01  0.1074E+02
   9.691  0.2233E+01  0.1085E+02
   9.741  0.1995E+01  0.1096E+02
   9.791  0.1933E+01  0.1105E+02
   9.841  0.1940E+01  0.1115E+02
   9.891  0.1891E+01  0.1124E+02
   9.941  0.1858E+01  0.1134E+02
   9.991  0.1773E+01  0.1143E+02
  10.041  0.1719E+01  0.1152E+02
  10.091  0.1662E+01  0.1160E+02
  10.141  0.1606E+01  0.1168E+02
  10.191  0.1528E+01  0.1176E+02
  10.241  0.1456E+01  0.1184E+02
  10.291  0.1366E+01  0.1191E+02
  10.341  0.1321E+01  0.1197E+02
  10.391  0.1285E+01  0.1204E+02
  10.441  0.1250E+01  0.1210E+02
  10.491  0.1207E+01  0.1217E+02
  10.541  0.1186E+01  0.1223E+02
  10.591  0.1144E+01  0.1228E+02
  10.641  0.1132E+01  0.1234E+02
  10.691  0.1165E+01  0.1240E+02
  10.741  0.1196E+01  0.1246E+02
  10.791  0.1342E+01  0.1252E+02
  10.841  0.1204E+01  0.1259E+02
  10.891  0.1108E+01  0.1264E+02
  10.941  0.1036E+01  0.1270E+02
  10.991  0.9772E+00  0.1275E+02
  11.041  0.9673E+00  0.1280E+02
  11.091  0.1007E+01  0.1285E+02
  11.141  0.1118E+01  0.1290E+02
  11.191  0.1121E+01  0.1296E+02
  11.241  0.1213E+01  0.1302E+02
  11.291  0.1240E+01  0.1308E+02
  11.341  0.1210E+01  0.1314E+02
  11.391  0.1200E+01  0.1320E+02
  11.441  0.1194E+01  0.1326E+02
  11.491  0.1191E+01  0.1332E+02
  11.541  0.1182E+01  0.1338E+02
  11.591  0.1173E+01  0.1344E+02
  11.641  0.1170E+01  0.1350E+02
  11.691  0.1177E+01  0.1356E+02
  11.741  0.1176E+01  0.1361E+02
  11.791  0.1181E+01  0.1367E+02
  11.841  0.1186E+01  0.1373E+02
  11.891  0.1181E+01  0.1379E+02
  11.941  0.1168E+01  0.1385E+02
  11.991  0.1154E+01  0.1391E+02
  12.041  0.1111E+01  0.1397E+02
  12.091  0.1045E+01  0.1402E+02
  12.141  0.9946E+00  0.1407E+02
  12.191  0.9837E+00  0.1412E+02
  12.241  0.9397E+00  0.1417E+02
  12.291  0.8760E+00  0.1421E+02
  12.341  0.8583E+00  0.1426E+02
  12.391  0.8565E+00  0.1430E+02
  12.441  0.8646E+00  0.1434E+02
  12.491  0.9076E+00  0.1439E+02
  12.541  0.9580E+00  0.1443E+02
  12.591  0.1006E+01  0.1448E+02
  12.641  0.1051E+01  0.1453E+02
  12.691  0.1096E+01  0.1459E+02
  12.741  0.1110E+01  0.1464E+02
  12.791  0.1124E+01  0.1470E+02
  12.841  0.1129E+01  0.1476E+02
  12.891  0.1120E+01  0.1481E+02
  12.941  0.1117E+01  0.1487E+02
  12.991  0.1109E+01  0.1492E+02
  13.041  0.1099E+01  0.1498E+02
  13.091  0.1074E+01  0.1503E+02
  13.141  0.1044E+01  0.1509E+02
  13.191  0.1009E+01  0.1514E+02
  13.241  0.9699E+00  0.1519E+02
  13.291  0.9230E+00  0.1523E+02
  13.341  0.8717E+00  0.1528E+02
  13.391  0.8170E+00  0.1532E+02
  13.441  0.7672E+00  0.1536E+02
  13.491  0.7283E+00  0.1540E+02
  13.541  0.6941E+00  0.1543E+02
  13.591  0.6634E+00  0.1547E+02
  13.641  0.6406E+00  0.1550E+02
  13.691  0.6241E+00  0.1553E+02
  13.741  0.5827E+00  0.1556E+02
  13.791  0.5079E+00  0.1559E+02
  13.841  0.4850E+00  0.1561E+02
  13.891  0.4685E+00  0.1564E+02
  13.941  0.4525E+00  0.1566E+02
  13.991  0.4446E+00  0.1568E+02
  14.041  0.4487E+00  0.1571E+02
  14.091  0.4595E+00  0.1573E+02
  14.141  0.4758E+00  0.1575E+02
  14.191  0.4662E+00  0.1578E+02
  14.241  0.2818E+00  0.1579E+02
  14.291  0.2307E+00  0.1581E+02
  14.341  0.2224E+00  0.1582E+02
  14.391  0.2143E+00  0.1583E+02
  14.441  0.2064E+00  0.1584E+02
  14.491  0.1987E+00  0.1585E+02
  14.541  0.1913E+00  0.1586E+02
  14.591  0.1845E+00  0.1587E+02
  14.641  0.1782E+00  0.1588E+02
  14.691  0.1725E+00  0.1589E+02
  14.741  0.1674E+00  0.1590E+02
  14.791  0.1629E+00  0.1590E+02
  14.841  0.1614E+00  0.1591E+02
  14.891  0.1607E+00  0.1592E+02
  14.941  0.1597E+00  0.1593E+02
  14.991  0.1585E+00  0.1594E+02
  15.041  0.1562E+00  0.1594E+02
  15.091  0.1575E+00  0.1595E+02
  15.141  0.1712E+00  0.1596E+02
  15.191  0.1684E+00  0.1597E+02
  15.241  0.1369E+00  0.1598E+02
  15.291  0.9243E-01  0.1598E+02
  15.341  0.6362E-01  0.1599E+02
  15.391  0.3881E-01  0.1599E+02
  15.441  0.3467E-01  0.1599E+02
  15.491  0.3077E-01  0.1599E+02
  15.541  0.2710E-01  0.1599E+02
  15.591  0.2366E-01  0.1599E+02
  15.641  0.2046E-01  0.1600E+02
  15.691  0.1749E-01  0.1600E+02
  15.741  0.1475E-01  0.1600E+02
  15.791  0.1224E-01  0.1600E+02
  15.841  0.9971E-02  0.1600E+02
  15.891  0.7932E-02  0.1600E+02
  15.941  0.6126E-02  0.1600E+02
  15.991  0.4552E-02  0.1600E+02
  16.041  0.3212E-02  0.1600E+02
  16.091  0.2105E-02  0.1600E+02
  16.141  0.1231E-02  0.1600E+02
  16.191  0.5903E-03  0.1600E+02
  16.241  0.1823E-03  0.1600E+02
  16.291  0.7339E-05  0.1600E+02
