# E (eV)   ldos(E)   pdos(E)    pdos(E)    pdos(E)   
  -5.759  0.000E+00  0.000E+00  0.000E+00  0.000E+00
  -5.709  0.450E-03  0.150E-03  0.150E-03  0.150E-03
  -5.659  0.269E-02  0.895E-03  0.895E-03  0.895E-03
  -5.609  0.408E-02  0.136E-02  0.136E-02  0.136E-02
  -5.559  0.636E-02  0.212E-02  0.212E-02  0.212E-02
  -5.509  0.922E-02  0.307E-02  0.307E-02  0.307E-02
  -5.459  0.119E-01  0.396E-02  0.396E-02  0.396E-02
  -5.409  0.137E-01  0.458E-02  0.458E-02  0.458E-02
  -5.359  0.162E-01  0.541E-02  0.541E-02  0.541E-02
  -5.309  0.189E-01  0.630E-02  0.630E-02  0.630E-02
  -5.259  0.217E-01  0.725E-02  0.725E-02  0.725E-02
  -5.209  0.248E-01  0.827E-02  0.827E-02  0.827E-02
  -5.159  0.272E-01  0.907E-02  0.907E-02  0.907E-02
  -5.109  0.296E-01  0.988E-02  0.988E-02  0.988E-02
  -5.059  0.320E-01  0.107E-01  0.107E-01  0.107E-01
  -5.009  0.344E-01  0.115E-01  0.115E-01  0.115E-01
  -4.959  0.368E-01  0.123E-01  0.123E-01  0.123E-01
  -4.909  0.395E-01  0.132E-01  0.132E-01  0.132E-01
  -4.859  0.422E-01  0.141E-01  0.141E-01  0.141E-01
  -4.809  0.450E-01  0.150E-01  0.150E-01  0.150E-01
  -4.759  0.476E-01  0.159E-01  0.159E-01  0.159E-01
  -4.709  0.496E-01  0.165E-01  0.165E-01  0.165E-01
  -4.659  0.519E-01  0.173E-01  0.173E-01  0.173E-01
  -4.609  0.542E-01  0.181E-01  0.181E-01  0.181E-01
  -4.559  0.566E-01  0.189E-01  0.189E-01  0.189E-01
  -4.509  0.589E-01  0.196E-01  0.196E-01  0.196E-01
  -4.459  0.613E-01  0.204E-01  0.204E-01  0.204E-01
  -4.409  0.638E-01  0.213E-01  0.213E-01  0.213E-01
  -4.359  0.663E-01  0.221E-01  0.221E-01  0.221E-01
  -4.309  0.689E-01  0.230E-01  0.230E-01  0.230E-01
  -4.259  0.713E-01  0.238E-01  0.238E-01  0.238E-01
  -4.209  0.736E-01  0.245E-01  0.245E-01  0.245E-01
  -4.159  0.759E-01  0.253E-01  0.253E-01  0.253E-01
  -4.109  0.782E-01  0.261E-01  0.261E-01  0.261E-01
  -4.059  0.807E-01  0.269E-01  0.269E-01  0.269E-01
  -4.009  0.833E-01  0.278E-01  0.278E-01  0.278E-01
  -3.959  0.859E-01  0.286E-01  0.286E-01  0.286E-01
  -3.909  0.886E-01  0.295E-01  0.295E-01  0.295E-01
  -3.859  0.914E-01  0.305E-01  0.305E-01  0.305E-01
  -3.809  0.944E-01  0.315E-01  0.315E-01  0.315E-01
  -3.759  0.975E-01  0.325E-01  0.325E-01  0.325E-01
  -3.709  0.101E+00  0.336E-01  0.336E-01  0.336E-01
  -3.659  0.104E+00  0.348E-01  0.348E-01  0.348E-01
  -3.609  0.108E+00  0.361E-01  0.361E-01  0.361E-01
  -3.559  0.113E+00  0.377E-01  0.377E-01  0.377E-01
  -3.509  0.119E+00  0.395E-01  0.395E-01  0.395E-01
  -3.459  0.133E+00  0.442E-01  0.442E-01  0.442E-01
  -3.409  0.148E+00  0.495E-01  0.495E-01  0.495E-01
  -3.359  0.134E+00  0.448E-01  0.448E-01  0.448E-01
  -3.309  0.135E+00  0.449E-01  0.449E-01  0.449E-01
  -3.259  0.136E+00  0.452E-01  0.452E-01  0.452E-01
  -3.209  0.133E+00  0.442E-01  0.442E-01  0.442E-01
  -3.159  0.127E+00  0.425E-01  0.425E-01  0.425E-01
  -3.109  0.130E+00  0.434E-01  0.434E-01  0.434E-01
  -3.059  0.132E+00  0.441E-01  0.441E-01  0.441E-01
  -3.009  0.131E+00  0.437E-01  0.437E-01  0.437E-01
  -2.959  0.128E+00  0.425E-01  0.425E-01  0.425E-01
  -2.909  0.123E+00  0.409E-01  0.409E-01  0.409E-01
  -2.859  0.121E+00  0.402E-01  0.402E-01  0.402E-01
  -2.809  0.119E+00  0.396E-01  0.396E-01  0.396E-01
  -2.759  0.117E+00  0.390E-01  0.390E-01  0.390E-01
  -2.709  0.116E+00  0.386E-01  0.386E-01  0.386E-01
  -2.659  0.115E+00  0.382E-01  0.382E-01  0.382E-01
  -2.609  0.113E+00  0.376E-01  0.376E-01  0.376E-01
  -2.559  0.110E+00  0.368E-01  0.368E-01  0.368E-01
  -2.509  0.107E+00  0.355E-01  0.355E-01  0.355E-01
  -2.459  0.104E+00  0.345E-01  0.345E-01  0.345E-01
  -2.409  0.102E+00  0.339E-01  0.339E-01  0.339E-01
  -2.359  0.996E-01  0.332E-01  0.332E-01  0.332E-01
  -2.309  0.975E-01  0.325E-01  0.325E-01  0.325E-01
  -2.259  0.953E-01  0.318E-01  0.318E-01  0.318E-01
  -2.209  0.928E-01  0.309E-01  0.309E-01  0.309E-01
  -2.159  0.905E-01  0.302E-01  0.302E-01  0.302E-01
  -2.109  0.898E-01  0.299E-01  0.299E-01  0.299E-01
  -2.059  0.923E-01  0.308E-01  0.308E-01  0.308E-01
  -2.009  0.881E-01  0.294E-01  0.294E-01  0.294E-01
  -1.959  0.731E-01  0.244E-01  0.244E-01  0.244E-01
  -1.909  0.616E-01  0.205E-01  0.205E-01  0.205E-01
  -1.859  0.508E-01  0.169E-01  0.169E-01  0.169E-01
  -1.809  0.407E-01  0.136E-01  0.136E-01  0.136E-01
  -1.759  0.315E-01  0.105E-01  0.105E-01  0.105E-01
  -1.709  0.231E-01  0.770E-02  0.770E-02  0.770E-02
  -1.659  0.156E-01  0.518E-02  0.518E-02  0.518E-02
  -1.609  0.889E-02  0.296E-02  0.296E-02  0.296E-02
  -1.559  0.545E-02  0.182E-02  0.182E-02  0.182E-02
  -1.509  0.517E-02  0.172E-02  0.172E-02  0.172E-02
  -1.459  0.831E-02  0.277E-02  0.277E-02  0.277E-02
  -1.409  0.150E-01  0.501E-02  0.501E-02  0.501E-02
  -1.359  0.228E-01  0.758E-02  0.758E-02  0.758E-02
  -1.309  0.313E-01  0.104E-01  0.104E-01  0.104E-01
  -1.259  0.405E-01  0.135E-01  0.135E-01  0.135E-01
  -1.209  0.505E-01  0.168E-01  0.168E-01  0.168E-01
  -1.159  0.611E-01  0.204E-01  0.204E-01  0.204E-01
  -1.109  0.725E-01  0.242E-01  0.242E-01  0.242E-01
  -1.059  0.846E-01  0.282E-01  0.282E-01  0.282E-01
  -1.009  0.958E-01  0.319E-01  0.319E-01  0.319E-01
  -0.959  0.104E+00  0.346E-01  0.346E-01  0.346E-01
  -0.909  0.113E+00  0.376E-01  0.376E-01  0.376E-01
  -0.859  0.124E+00  0.415E-01  0.415E-01  0.415E-01
  -0.809  0.134E+00  0.448E-01  0.448E-01  0.448E-01
  -0.759  0.146E+00  0.488E-01  0.488E-01  0.488E-01
  -0.709  0.174E+00  0.581E-01  0.581E-01  0.581E-01
  -0.659  0.274E+00  0.913E-01  0.913E-01  0.913E-01
  -0.609  0.372E+00  0.124E+00  0.124E+00  0.124E+00
  -0.559  0.569E+00  0.190E+00  0.190E+00  0.190E+00
  -0.509  0.476E+00  0.159E+00  0.159E+00  0.159E+00
  -0.459  0.388E+00  0.129E+00  0.129E+00  0.129E+00
  -0.409  0.328E+00  0.109E+00  0.109E+00  0.109E+00
  -0.359  0.291E+00  0.970E-01  0.970E-01  0.970E-01
  -0.309  0.265E+00  0.884E-01  0.884E-01  0.884E-01
  -0.259  0.244E+00  0.815E-01  0.815E-01  0.815E-01
  -0.209  0.228E+00  0.759E-01  0.759E-01  0.759E-01
  -0.159  0.214E+00  0.714E-01  0.714E-01  0.714E-01
  -0.109  0.203E+00  0.676E-01  0.676E-01  0.676E-01
  -0.059  0.190E+00  0.634E-01  0.634E-01  0.634E-01
  -0.009  0.182E+00  0.607E-01  0.607E-01  0.607E-01
   0.041  0.176E+00  0.586E-01  0.586E-01  0.586E-01
   0.091  0.170E+00  0.566E-01  0.566E-01  0.566E-01
   0.141  0.165E+00  0.548E-01  0.548E-01  0.548E-01
   0.191  0.160E+00  0.532E-01  0.532E-01  0.532E-01
   0.241  0.155E+00  0.516E-01  0.516E-01  0.516E-01
   0.291  0.150E+00  0.500E-01  0.500E-01  0.500E-01
   0.341  0.146E+00  0.485E-01  0.485E-01  0.485E-01
   0.391  0.141E+00  0.470E-01  0.470E-01  0.470E-01
   0.441  0.137E+00  0.456E-01  0.456E-01  0.456E-01
   0.491  0.133E+00  0.442E-01  0.442E-01  0.442E-01
   0.541  0.127E+00  0.422E-01  0.422E-01  0.422E-01
   0.591  0.121E+00  0.402E-01  0.402E-01  0.402E-01
   0.641  0.117E+00  0.390E-01  0.390E-01  0.390E-01
   0.691  0.114E+00  0.381E-01  0.381E-01  0.381E-01
   0.741  0.112E+00  0.373E-01  0.373E-01  0.373E-01
   0.791  0.110E+00  0.366E-01  0.366E-01  0.366E-01
   0.841  0.108E+00  0.359E-01  0.359E-01  0.359E-01
   0.891  0.106E+00  0.352E-01  0.352E-01  0.352E-01
   0.941  0.104E+00  0.346E-01  0.346E-01  0.346E-01
   0.991  0.102E+00  0.339E-01  0.339E-01  0.339E-01
   1.041  0.997E-01  0.332E-01  0.332E-01  0.332E-01
   1.091  0.974E-01  0.325E-01  0.325E-01  0.325E-01
   1.141  0.950E-01  0.317E-01  0.317E-01  0.317E-01
   1.191  0.923E-01  0.308E-01  0.308E-01  0.308E-01
   1.241  0.894E-01  0.298E-01  0.298E-01  0.298E-01
   1.291  0.868E-01  0.289E-01  0.289E-01  0.289E-01
   1.341  0.843E-01  0.281E-01  0.281E-01  0.281E-01
   1.391  0.806E-01  0.269E-01  0.269E-01  0.269E-01
   1.441  0.777E-01  0.259E-01  0.259E-01  0.259E-01
   1.491  0.757E-01  0.252E-01  0.252E-01  0.252E-01
   1.541  0.746E-01  0.249E-01  0.249E-01  0.249E-01
   1.591  0.735E-01  0.245E-01  0.245E-01  0.245E-01
   1.641  0.724E-01  0.241E-01  0.241E-01  0.241E-01
   1.691  0.713E-01  0.238E-01  0.238E-01  0.238E-01
   1.741  0.702E-01  0.234E-01  0.234E-01  0.234E-01
   1.791  0.691E-01  0.230E-01  0.230E-01  0.230E-01
   1.841  0.886E-01  0.295E-01  0.295E-01  0.295E-01
   1.891  0.146E+00  0.486E-01  0.486E-01  0.486E-01
   1.941  0.241E+00  0.803E-01  0.803E-01  0.803E-01
   1.991  0.395E+00  0.132E+00  0.132E+00  0.132E+00
   2.041  0.443E+00  0.148E+00  0.148E+00  0.148E+00
   2.091  0.547E+00  0.182E+00  0.182E+00  0.182E+00
   2.141  0.585E+00  0.195E+00  0.195E+00  0.195E+00
   2.191  0.564E+00  0.188E+00  0.188E+00  0.188E+00
   2.241  0.543E+00  0.181E+00  0.181E+00  0.181E+00
   2.291  0.506E+00  0.169E+00  0.169E+00  0.169E+00
   2.341  0.492E+00  0.164E+00  0.164E+00  0.164E+00
   2.391  0.481E+00  0.160E+00  0.160E+00  0.160E+00
   2.441  0.488E+00  0.163E+00  0.163E+00  0.163E+00
   2.491  0.483E+00  0.161E+00  0.161E+00  0.161E+00
   2.541  0.456E+00  0.152E+00  0.152E+00  0.152E+00
   2.591  0.457E+00  0.152E+00  0.152E+00  0.152E+00
   2.641  0.460E+00  0.153E+00  0.153E+00  0.153E+00
   2.691  0.465E+00  0.155E+00  0.155E+00  0.155E+00
   2.741  0.459E+00  0.153E+00  0.153E+00  0.153E+00
   2.791  0.460E+00  0.153E+00  0.153E+00  0.153E+00
   2.841  0.464E+00  0.155E+00  0.155E+00  0.155E+00
   2.891  0.471E+00  0.157E+00  0.157E+00  0.157E+00
   2.941  0.484E+00  0.161E+00  0.161E+00  0.161E+00
   2.991  0.494E+00  0.165E+00  0.165E+00  0.165E+00
   3.041  0.632E+00  0.211E+00  0.211E+00  0.211E+00
   3.091  0.532E+00  0.177E+00  0.177E+00  0.177E+00
   3.141  0.561E+00  0.187E+00  0.187E+00  0.187E+00
   3.191  0.612E+00  0.204E+00  0.204E+00  0.204E+00
   3.241  0.653E+00  0.218E+00  0.218E+00  0.218E+00
   3.291  0.657E+00  0.219E+00  0.219E+00  0.219E+00
   3.341  0.677E+00  0.226E+00  0.226E+00  0.226E+00
   3.391  0.733E+00  0.244E+00  0.244E+00  0.244E+00
   3.441  0.725E+00  0.242E+00  0.242E+00  0.242E+00
   3.491  0.699E+00  0.233E+00  0.233E+00  0.233E+00
   3.541  0.699E+00  0.233E+00  0.233E+00  0.233E+00
   3.591  0.700E+00  0.233E+00  0.233E+00  0.233E+00
   3.641  0.696E+00  0.232E+00  0.232E+00  0.232E+00
   3.691  0.697E+00  0.232E+00  0.232E+00  0.232E+00
   3.741  0.690E+00  0.230E+00  0.230E+00  0.230E+00
   3.791  0.677E+00  0.226E+00  0.226E+00  0.226E+00
   3.841  0.668E+00  0.223E+00  0.223E+00  0.223E+00
   3.891  0.659E+00  0.220E+00  0.220E+00  0.220E+00
   3.941  0.649E+00  0.216E+00  0.216E+00  0.216E+00
   3.991  0.642E+00  0.214E+00  0.214E+00  0.214E+00
   4.041  0.645E+00  0.215E+00  0.215E+00  0.215E+00
   4.091  0.647E+00  0.216E+00  0.216E+00  0.216E+00
   4.141  0.646E+00  0.215E+00  0.215E+00  0.215E+00
   4.191  0.642E+00  0.214E+00  0.214E+00  0.214E+00
   4.241  0.635E+00  0.212E+00  0.212E+00  0.212E+00
   4.291  0.626E+00  0.209E+00  0.209E+00  0.209E+00
   4.341  0.615E+00  0.205E+00  0.205E+00  0.205E+00
   4.391  0.607E+00  0.202E+00  0.202E+00  0.202E+00
   4.441  0.606E+00  0.202E+00  0.202E+00  0.202E+00
   4.491  0.606E+00  0.202E+00  0.202E+00  0.202E+00
   4.541  0.607E+00  0.202E+00  0.202E+00  0.202E+00
   4.591  0.609E+00  0.203E+00  0.203E+00  0.203E+00
   4.641  0.610E+00  0.203E+00  0.203E+00  0.203E+00
   4.691  0.602E+00  0.201E+00  0.201E+00  0.201E+00
   4.741  0.592E+00  0.197E+00  0.197E+00  0.197E+00
   4.791  0.583E+00  0.194E+00  0.194E+00  0.194E+00
   4.841  0.579E+00  0.193E+00  0.193E+00  0.193E+00
   4.891  0.575E+00  0.192E+00  0.192E+00  0.192E+00
   4.941  0.550E+00  0.183E+00  0.183E+00  0.183E+00
   4.991  0.499E+00  0.166E+00  0.166E+00  0.166E+00
   5.041  0.418E+00  0.139E+00  0.139E+00  0.139E+00
   5.091  0.385E+00  0.128E+00  0.128E+00  0.128E+00
   5.141  0.351E+00  0.117E+00  0.117E+00  0.117E+00
   5.191  0.316E+00  0.105E+00  0.105E+00  0.105E+00
   5.241  0.292E+00  0.973E-01  0.973E-01  0.973E-01
   5.291  0.273E+00  0.911E-01  0.911E-01  0.911E-01
   5.341  0.255E+00  0.851E-01  0.851E-01  0.851E-01
   5.391  0.244E+00  0.814E-01  0.814E-01  0.814E-01
   5.441  0.231E+00  0.770E-01  0.770E-01  0.770E-01
   5.491  0.214E+00  0.712E-01  0.712E-01  0.712E-01
   5.541  0.198E+00  0.659E-01  0.659E-01  0.659E-01
   5.591  0.182E+00  0.607E-01  0.607E-01  0.607E-01
   5.641  0.166E+00  0.554E-01  0.554E-01  0.554E-01
   5.691  0.151E+00  0.503E-01  0.503E-01  0.503E-01
   5.741  0.137E+00  0.455E-01  0.455E-01  0.455E-01
   5.791  0.122E+00  0.407E-01  0.407E-01  0.407E-01
   5.841  0.106E+00  0.352E-01  0.352E-01  0.352E-01
   5.891  0.896E-01  0.299E-01  0.299E-01  0.299E-01
   5.941  0.767E-01  0.256E-01  0.256E-01  0.256E-01
   5.991  0.668E-01  0.223E-01  0.223E-01  0.223E-01
   6.041  0.597E-01  0.199E-01  0.199E-01  0.199E-01
   6.091  0.189E-01  0.631E-02  0.631E-02  0.631E-02
   6.141  0.577E-02  0.192E-02  0.192E-02  0.192E-02
   6.191  0.209E-03  0.697E-04  0.697E-04  0.697E-04
   6.241  0.000E+00  0.000E+00  0.000E+00  0.000E+00
   6.291  0.000E+00  0.000E+00  0.000E+00  0.000E+00
   6.341  0.000E+00  0.000E+00  0.000E+00  0.000E+00
   6.391  0.000E+00  0.000E+00  0.000E+00  0.000E+00
   6.441  0.000E+00  0.000E+00  0.000E+00  0.000E+00
   6.491  0.000E+00  0.000E+00  0.000E+00  0.000E+00
   6.541  0.000E+00  0.000E+00  0.000E+00  0.000E+00
   6.591  0.000E+00  0.000E+00  0.000E+00  0.000E+00
   6.641  0.000E+00  0.000E+00  0.000E+00  0.000E+00
   6.691  0.000E+00  0.000E+00  0.000E+00  0.000E+00
   6.741  0.000E+00  0.000E+00  0.000E+00  0.000E+00
   6.791  0.339E-03  0.113E-03  0.113E-03  0.113E-03
   6.841  0.566E-02  0.189E-02  0.189E-02  0.189E-02
   6.891  0.173E-01  0.577E-02  0.577E-02  0.577E-02
   6.941  0.325E-01  0.108E-01  0.108E-01  0.108E-01
   6.991  0.398E-01  0.133E-01  0.133E-01  0.133E-01
   7.041  0.498E-01  0.166E-01  0.166E-01  0.166E-01
   7.091  0.595E-01  0.198E-01  0.198E-01  0.198E-01
   7.141  0.704E-01  0.235E-01  0.235E-01  0.235E-01
   7.191  0.811E-01  0.270E-01  0.270E-01  0.270E-01
   7.241  0.916E-01  0.305E-01  0.305E-01  0.305E-01
   7.291  0.102E+00  0.340E-01  0.340E-01  0.340E-01
   7.341  0.113E+00  0.378E-01  0.378E-01  0.378E-01
   7.391  0.124E+00  0.415E-01  0.415E-01  0.415E-01
   7.441  0.136E+00  0.453E-01  0.453E-01  0.453E-01
   7.491  0.148E+00  0.494E-01  0.494E-01  0.494E-01
   7.541  0.161E+00  0.538E-01  0.538E-01  0.538E-01
   7.591  0.170E+00  0.565E-01  0.565E-01  0.565E-01
   7.641  0.176E+00  0.586E-01  0.586E-01  0.586E-01
   7.691  0.181E+00  0.602E-01  0.602E-01  0.602E-01
   7.741  0.186E+00  0.619E-01  0.619E-01  0.619E-01
   7.791  0.194E+00  0.647E-01  0.647E-01  0.647E-01
   7.841  0.204E+00  0.679E-01  0.679E-01  0.679E-01
   7.891  0.214E+00  0.713E-01  0.713E-01  0.713E-01
   7.941  0.225E+00  0.750E-01  0.750E-01  0.750E-01
   7.991  0.238E+00  0.792E-01  0.792E-01  0.792E-01
   8.041  0.252E+00  0.839E-01  0.839E-01  0.839E-01
   8.091  0.267E+00  0.891E-01  0.891E-01  0.891E-01
   8.141  0.284E+00  0.945E-01  0.945E-01  0.945E-01
   8.191  0.301E+00  0.100E+00  0.100E+00  0.100E+00
   8.241  0.325E+00  0.108E+00  0.108E+00  0.108E+00
   8.291  0.373E+00  0.124E+00  0.124E+00  0.124E+00
   8.341  0.408E+00  0.136E+00  0.136E+00  0.136E+00
   8.391  0.432E+00  0.144E+00  0.144E+00  0.144E+00
   8.441  0.452E+00  0.151E+00  0.151E+00  0.151E+00
   8.491  0.469E+00  0.156E+00  0.156E+00  0.156E+00
   8.541  0.503E+00  0.168E+00  0.168E+00  0.168E+00
   8.591  0.558E+00  0.186E+00  0.186E+00  0.186E+00
   8.641  0.592E+00  0.197E+00  0.197E+00  0.197E+00
   8.691  0.590E+00  0.197E+00  0.197E+00  0.197E+00
   8.741  0.571E+00  0.190E+00  0.190E+00  0.190E+00
   8.791  0.525E+00  0.175E+00  0.175E+00  0.175E+00
   8.841  0.424E+00  0.141E+00  0.141E+00  0.141E+00
   8.891  0.386E+00  0.129E+00  0.129E+00  0.129E+00
   8.941  0.353E+00  0.118E+00  0.118E+00  0.118E+00
   8.991  0.330E+00  0.110E+00  0.110E+00  0.110E+00
   9.041  0.325E+00  0.108E+00  0.108E+00  0.108E+00
   9.091  0.318E+00  0.106E+00  0.106E+00  0.106E+00
   9.141  0.304E+00  0.101E+00  0.101E+00  0.101E+00
   9.191  0.283E+00  0.943E-01  0.943E-01  0.943E-01
   9.241  0.260E+00  0.868E-01  0.868E-01  0.868E-01
   9.291  0.253E+00  0.842E-01  0.842E-01  0.842E-01
   9.341  0.256E+00  0.855E-01  0.855E-01  0.855E-01
   9.391  0.346E+00  0.115E+00  0.115E+00  0.115E+00
   9.441  0.401E+00  0.134E+00  0.134E+00  0.134E+00
   9.491  0.544E+00  0.181E+00  0.181E+00  0.181E+00
   9.541  0.640E+00  0.213E+00  0.213E+00  0.213E+00
   9.591  0.634E+00  0.211E+00  0.211E+00  0.211E+00
   9.641  0.717E+00  0.239E+00  0.239E+00  0.239E+00
   9.691  0.712E+00  0.237E+00  0.237E+00  0.237E+00
   9.741  0.677E+00  0.226E+00  0.226E+00  0.226E+00
   9.791  0.601E+00  0.200E+00  0.200E+00  0.200E+00
   9.841  0.599E+00  0.200E+00  0.200E+00  0.200E+00
   9.891  0.593E+00  0.198E+00  0.198E+00  0.198E+00
   9.941  0.599E+00  0.200E+00  0.200E+00  0.200E+00
   9.991  0.581E+00  0.194E+00  0.194E+00  0.194E+00
  10.041  0.546E+00  0.182E+00  0.182E+00  0.182E+00
  10.091  0.505E+00  0.168E+00  0.168E+00  0.168E+00
  10.141  0.458E+00  0.153E+00  0.153E+00  0.153E+00
  10.191  0.428E+00  0.143E+00  0.143E+00  0.143E+00
  10.241  0.404E+00  0.135E+00  0.135E+00  0.135E+00
  10.291  0.385E+00  0.128E+00  0.128E+00  0.128E+00
  10.341  0.378E+00  0.126E+00  0.126E+00  0.126E+00
  10.391  0.375E+00  0.125E+00  0.125E+00  0.125E+00
  10.441  0.375E+00  0.125E+00  0.125E+00  0.125E+00
  10.491  0.414E+00  0.138E+00  0.138E+00  0.138E+00
  10.541  0.372E+00  0.124E+00  0.124E+00  0.124E+00
  10.591  0.339E+00  0.113E+00  0.113E+00  0.113E+00
  10.641  0.322E+00  0.107E+00  0.107E+00  0.107E+00
  10.691  0.319E+00  0.106E+00  0.106E+00  0.106E+00
  10.741  0.335E+00  0.112E+00  0.112E+00  0.112E+00
  10.791  0.474E+00  0.158E+00  0.158E+00  0.158E+00
  10.841  0.423E+00  0.141E+00  0.141E+00  0.141E+00
  10.891  0.381E+00  0.127E+00  0.127E+00  0.127E+00
  10.941  0.336E+00  0.112E+00  0.112E+00  0.112E+00
  10.991  0.296E+00  0.987E-01  0.987E-01  0.987E-01
  11.041  0.269E+00  0.897E-01  0.897E-01  0.897E-01
  11.091  0.280E+00  0.933E-01  0.933E-01  0.933E-01
  11.141  0.287E+00  0.955E-01  0.955E-01  0.955E-01
  11.191  0.292E+00  0.973E-01  0.973E-01  0.973E-01
  11.241  0.352E+00  0.117E+00  0.117E+00  0.117E+00
  11.291  0.349E+00  0.116E+00  0.116E+00  0.116E+00
  11.341  0.311E+00  0.104E+00  0.104E+00  0.104E+00
  11.391  0.308E+00  0.103E+00  0.103E+00  0.103E+00
  11.441  0.309E+00  0.103E+00  0.103E+00  0.103E+00
  11.491  0.311E+00  0.104E+00  0.104E+00  0.104E+00
  11.541  0.309E+00  0.103E+00  0.103E+00  0.103E+00
  11.591  0.306E+00  0.102E+00  0.102E+00  0.102E+00
  11.641  0.302E+00  0.101E+00  0.101E+00  0.101E+00
  11.691  0.292E+00  0.973E-01  0.973E-01  0.973E-01
  11.741  0.293E+00  0.976E-01  0.976E-01  0.976E-01
  11.791  0.300E+00  0.999E-01  0.999E-01  0.999E-01
  11.841  0.312E+00  0.104E+00  0.104E+00  0.104E+00
  11.891  0.317E+00  0.106E+00  0.106E+00  0.106E+00
  11.941  0.308E+00  0.103E+00  0.103E+00  0.103E+00
  11.991  0.297E+00  0.991E-01  0.991E-01  0.991E-01
  12.041  0.288E+00  0.961E-01  0.961E-01  0.961E-01
  12.091  0.293E+00  0.977E-01  0.977E-01  0.977E-01
  12.141  0.274E+00  0.915E-01  0.915E-01  0.915E-01
  12.191  0.250E+00  0.834E-01  0.834E-01  0.834E-01
  12.241  0.230E+00  0.768E-01  0.768E-01  0.768E-01
  12.291  0.220E+00  0.734E-01  0.734E-01  0.734E-01
  12.341  0.219E+00  0.731E-01  0.731E-01  0.731E-01
  12.391  0.221E+00  0.737E-01  0.737E-01  0.737E-01
  12.441  0.221E+00  0.738E-01  0.738E-01  0.738E-01
  12.491  0.222E+00  0.740E-01  0.740E-01  0.740E-01
  12.541  0.230E+00  0.768E-01  0.768E-01  0.768E-01
  12.591  0.242E+00  0.808E-01  0.808E-01  0.808E-01
  12.641  0.258E+00  0.858E-01  0.858E-01  0.858E-01
  12.691  0.276E+00  0.919E-01  0.919E-01  0.919E-01
  12.741  0.260E+00  0.868E-01  0.868E-01  0.868E-01
  12.791  0.261E+00  0.869E-01  0.869E-01  0.869E-01
  12.841  0.258E+00  0.861E-01  0.861E-01  0.861E-01
  12.891  0.254E+00  0.848E-01  0.848E-01  0.848E-01
  12.941  0.257E+00  0.858E-01  0.858E-01  0.858E-01
  12.991  0.264E+00  0.881E-01  0.881E-01  0.881E-01
  13.041  0.262E+00  0.872E-01  0.872E-01  0.872E-01
  13.091  0.253E+00  0.842E-01  0.842E-01  0.842E-01
  13.141  0.243E+00  0.809E-01  0.809E-01  0.809E-01
  13.191  0.232E+00  0.773E-01  0.773E-01  0.773E-01
  13.241  0.221E+00  0.735E-01  0.735E-01  0.735E-01
  13.291  0.208E+00  0.695E-01  0.695E-01  0.695E-01
  13.341  0.195E+00  0.651E-01  0.651E-01  0.651E-01
  13.391  0.182E+00  0.608E-01  0.608E-01  0.608E-01
  13.441  0.175E+00  0.583E-01  0.583E-01  0.583E-01
  13.491  0.166E+00  0.555E-01  0.555E-01  0.555E-01
  13.541  0.159E+00  0.530E-01  0.530E-01  0.530E-01
  13.591  0.153E+00  0.511E-01  0.511E-01  0.511E-01
  13.641  0.148E+00  0.493E-01  0.493E-01  0.493E-01
  13.691  0.143E+00  0.476E-01  0.476E-01  0.476E-01
  13.741  0.142E+00  0.474E-01  0.474E-01  0.474E-01
  13.791  0.138E+00  0.460E-01  0.460E-01  0.460E-01
  13.841  0.131E+00  0.435E-01  0.435E-01  0.435E-01
  13.891  0.124E+00  0.413E-01  0.413E-01  0.413E-01
  13.941  0.117E+00  0.390E-01  0.390E-01  0.390E-01
  13.991  0.112E+00  0.375E-01  0.375E-01  0.375E-01
  14.041  0.112E+00  0.372E-01  0.372E-01  0.372E-01
  14.091  0.111E+00  0.369E-01  0.369E-01  0.369E-01
  14.141  0.109E+00  0.364E-01  0.364E-01  0.364E-01
  14.191  0.117E+00  0.389E-01  0.389E-01  0.389E-01
  14.241  0.899E-01  0.300E-01  0.300E-01  0.300E-01
  14.291  0.708E-01  0.236E-01  0.236E-01  0.236E-01
  14.341  0.679E-01  0.226E-01  0.226E-01  0.226E-01
  14.391  0.652E-01  0.217E-01  0.217E-01  0.217E-01
  14.441  0.627E-01  0.209E-01  0.209E-01  0.209E-01
  14.491  0.603E-01  0.201E-01  0.201E-01  0.201E-01
  14.541  0.581E-01  0.194E-01  0.194E-01  0.194E-01
  14.591  0.561E-01  0.187E-01  0.187E-01  0.187E-01
  14.641  0.545E-01  0.182E-01  0.182E-01  0.182E-01
  14.691  0.533E-01  0.178E-01  0.178E-01  0.178E-01
  14.741  0.524E-01  0.175E-01  0.175E-01  0.175E-01
  14.791  0.520E-01  0.173E-01  0.173E-01  0.173E-01
  14.841  0.530E-01  0.177E-01  0.177E-01  0.177E-01
  14.891  0.540E-01  0.180E-01  0.180E-01  0.180E-01
  14.941  0.547E-01  0.182E-01  0.182E-01  0.182E-01
  14.991  0.550E-01  0.183E-01  0.183E-01  0.183E-01
  15.041  0.556E-01  0.185E-01  0.185E-01  0.185E-01
  15.091  0.566E-01  0.189E-01  0.189E-01  0.189E-01
  15.141  0.562E-01  0.187E-01  0.187E-01  0.187E-01
  15.191  0.543E-01  0.181E-01  0.181E-01  0.181E-01
  15.241  0.508E-01  0.169E-01  0.169E-01  0.169E-01
  15.291  0.444E-01  0.148E-01  0.148E-01  0.148E-01
  15.341  0.321E-01  0.107E-01  0.107E-01  0.107E-01
  15.391  0.201E-01  0.670E-02  0.670E-02  0.670E-02
  15.441  0.183E-01  0.611E-02  0.611E-02  0.611E-02
  15.491  0.166E-01  0.553E-02  0.553E-02  0.553E-02
  15.541  0.149E-01  0.497E-02  0.497E-02  0.497E-02
  15.591  0.133E-01  0.442E-02  0.442E-02  0.442E-02
  15.641  0.117E-01  0.389E-02  0.389E-02  0.389E-02
  15.691  0.102E-01  0.339E-02  0.339E-02  0.339E-02
  15.741  0.874E-02  0.291E-02  0.291E-02  0.291E-02
  15.791  0.738E-02  0.246E-02  0.246E-02  0.246E-02
  15.841  0.612E-02  0.204E-02  0.204E-02  0.204E-02
  15.891  0.495E-02  0.165E-02  0.165E-02  0.165E-02
  15.941  0.389E-02  0.130E-02  0.130E-02  0.130E-02
  15.991  0.294E-02  0.980E-03  0.980E-03  0.980E-03
  16.041  0.211E-02  0.703E-03  0.703E-03  0.703E-03
  16.091  0.141E-02  0.468E-03  0.468E-03  0.468E-03
  16.141  0.835E-03  0.278E-03  0.278E-03  0.278E-03
  16.191  0.407E-03  0.136E-03  0.136E-03  0.136E-03
  16.241  0.128E-03  0.425E-04  0.425E-04  0.425E-04
  16.291  0.521E-05  0.174E-05  0.174E-05  0.174E-05
  16.341  0.000E+00  0.000E+00  0.000E+00  0.000E+00
