# E (eV)   ldos(E)   pdos(E)   
  -5.759  0.000E+00  0.000E+00
  -5.709  0.168E-01  0.168E-01
  -5.659  0.490E-01  0.490E-01
  -5.609  0.524E-01  0.524E-01
  -5.559  0.632E-01  0.632E-01
  -5.509  0.746E-01  0.746E-01
  -5.459  0.813E-01  0.813E-01
  -5.409  0.828E-01  0.828E-01
  -5.359  0.881E-01  0.881E-01
  -5.309  0.936E-01  0.936E-01
  -5.259  0.992E-01  0.992E-01
  -5.209  0.105E+00  0.105E+00
  -5.159  0.107E+00  0.107E+00
  -5.109  0.110E+00  0.110E+00
  -5.059  0.113E+00  0.113E+00
  -5.009  0.116E+00  0.116E+00
  -4.959  0.120E+00  0.120E+00
  -4.909  0.123E+00  0.123E+00
  -4.859  0.127E+00  0.127E+00
  -4.809  0.131E+00  0.131E+00
  -4.759  0.134E+00  0.134E+00
  -4.709  0.136E+00  0.136E+00
  -4.659  0.139E+00  0.139E+00
  -4.609  0.142E+00  0.142E+00
  -4.559  0.145E+00  0.145E+00
  -4.509  0.148E+00  0.148E+00
  -4.459  0.151E+00  0.151E+00
  -4.409  0.155E+00  0.155E+00
  -4.359  0.158E+00  0.158E+00
  -4.309  0.162E+00  0.162E+00
  -4.259  0.166E+00  0.166E+00
  -4.209  0.169E+00  0.169E+00
  -4.159  0.172E+00  0.172E+00
  -4.109  0.176E+00  0.176E+00
  -4.059  0.180E+00  0.180E+00
  -4.009  0.184E+00  0.184E+00
  -3.959  0.189E+00  0.189E+00
  -3.909  0.194E+00  0.194E+00
  -3.859  0.199E+00  0.199E+00
  -3.809  0.205E+00  0.205E+00
  -3.759  0.212E+00  0.212E+00
  -3.709  0.219E+00  0.219E+00
  -3.659  0.226E+00  0.226E+00
  -3.609  0.236E+00  0.236E+00
  -3.559  0.247E+00  0.247E+00
  -3.509  0.261E+00  0.261E+00
  -3.459  0.301E+00  0.301E+00
  -3.409  0.347E+00  0.347E+00
  -3.359  0.299E+00  0.299E+00
  -3.309  0.296E+00  0.296E+00
  -3.259  0.295E+00  0.295E+00
  -3.209  0.284E+00  0.284E+00
  -3.159  0.267E+00  0.267E+00
  -3.109  0.271E+00  0.271E+00
  -3.059  0.273E+00  0.273E+00
  -3.009  0.266E+00  0.266E+00
  -2.959  0.255E+00  0.255E+00
  -2.909  0.241E+00  0.241E+00
  -2.859  0.235E+00  0.235E+00
  -2.809  0.229E+00  0.229E+00
  -2.759  0.223E+00  0.223E+00
  -2.709  0.219E+00  0.219E+00
  -2.659  0.214E+00  0.214E+00
  -2.609  0.209E+00  0.209E+00
  -2.559  0.202E+00  0.202E+00
  -2.509  0.193E+00  0.193E+00
  -2.459  0.186E+00  0.186E+00
  -2.409  0.181E+00  0.181E+00
  -2.359  0.175E+00  0.175E+00
  -2.309  0.170E+00  0.170E+00
  -2.259  0.165E+00  0.165E+00
  -2.209  0.159E+00  0.159E+00
  -2.159  0.153E+00  0.153E+00
  -2.109  0.149E+00  0.149E+00
  -2.059  0.151E+00  0.151E+00
  -2.009  0.143E+00  0.143E+00
  -1.959  0.117E+00  0.117E+00
  -1.909  0.967E-01  0.967E-01
  -1.859  0.786E-01  0.786E-01
  -1.809  0.622E-01  0.622E-01
  -1.759  0.476E-01  0.476E-01
  -1.709  0.346E-01  0.346E-01
  -1.659  0.232E-01  0.232E-01
  -1.609  0.133E-01  0.133E-01
  -1.559  0.802E-02  0.802E-02
  -1.509  0.714E-02  0.714E-02
  -1.459  0.112E-01  0.112E-01
  -1.409  0.203E-01  0.203E-01
  -1.359  0.305E-01  0.305E-01
  -1.309  0.415E-01  0.415E-01
  -1.259  0.531E-01  0.531E-01
  -1.209  0.654E-01  0.654E-01
  -1.159  0.782E-01  0.782E-01
  -1.109  0.915E-01  0.915E-01
  -1.059  0.105E+00  0.105E+00
  -1.009  0.118E+00  0.118E+00
  -0.959  0.126E+00  0.126E+00
  -0.909  0.133E+00  0.133E+00
  -0.859  0.144E+00  0.144E+00
  -0.809  0.151E+00  0.151E+00
  -0.759  0.160E+00  0.160E+00
  -0.709  0.173E+00  0.173E+00
  -0.659  0.212E+00  0.212E+00
  -0.609  0.264E+00  0.264E+00
  -0.559  0.383E+00  0.383E+00
  -0.509  0.318E+00  0.318E+00
  -0.459  0.267E+00  0.267E+00
  -0.409  0.231E+00  0.231E+00
  -0.359  0.207E+00  0.207E+00
  -0.309  0.190E+00  0.190E+00
  -0.259  0.176E+00  0.176E+00
  -0.209  0.164E+00  0.164E+00
  -0.159  0.154E+00  0.154E+00
  -0.109  0.146E+00  0.146E+00
  -0.059  0.137E+00  0.137E+00
  -0.009  0.131E+00  0.131E+00
   0.041  0.126E+00  0.126E+00
   0.091  0.122E+00  0.122E+00
   0.141  0.118E+00  0.118E+00
   0.191  0.114E+00  0.114E+00
   0.241  0.110E+00  0.110E+00
   0.291  0.106E+00  0.106E+00
   0.341  0.103E+00  0.103E+00
   0.391  0.993E-01  0.993E-01
   0.441  0.958E-01  0.958E-01
   0.491  0.923E-01  0.923E-01
   0.541  0.875E-01  0.875E-01
   0.591  0.830E-01  0.830E-01
   0.641  0.802E-01  0.802E-01
   0.691  0.778E-01  0.778E-01
   0.741  0.759E-01  0.759E-01
   0.791  0.742E-01  0.742E-01
   0.841  0.724E-01  0.724E-01
   0.891  0.707E-01  0.707E-01
   0.941  0.690E-01  0.690E-01
   0.991  0.672E-01  0.672E-01
   1.041  0.654E-01  0.654E-01
   1.091  0.635E-01  0.635E-01
   1.141  0.614E-01  0.614E-01
   1.191  0.591E-01  0.591E-01
   1.241  0.568E-01  0.568E-01
   1.291  0.548E-01  0.548E-01
   1.341  0.528E-01  0.528E-01
   1.391  0.501E-01  0.501E-01
   1.441  0.480E-01  0.480E-01
   1.491  0.465E-01  0.465E-01
   1.541  0.455E-01  0.455E-01
   1.591  0.445E-01  0.445E-01
   1.641  0.435E-01  0.435E-01
   1.691  0.426E-01  0.426E-01
   1.741  0.416E-01  0.416E-01
   1.791  0.405E-01  0.405E-01
   1.841  0.398E-01  0.398E-01
   1.891  0.399E-01  0.399E-01
   1.941  0.412E-01  0.412E-01
   1.991  0.447E-01  0.447E-01
   2.041  0.458E-01  0.458E-01
   2.091  0.488E-01  0.488E-01
   2.141  0.513E-01  0.513E-01
   2.191  0.520E-01  0.520E-01
   2.241  0.517E-01  0.517E-01
   2.291  0.495E-01  0.495E-01
   2.341  0.496E-01  0.496E-01
   2.391  0.499E-01  0.499E-01
   2.441  0.507E-01  0.507E-01
   2.491  0.509E-01  0.509E-01
   2.541  0.510E-01  0.510E-01
   2.591  0.514E-01  0.514E-01
   2.641  0.518E-01  0.518E-01
   2.691  0.519E-01  0.519E-01
   2.741  0.508E-01  0.508E-01
   2.791  0.501E-01  0.501E-01
   2.841  0.494E-01  0.494E-01
   2.891  0.488E-01  0.488E-01
   2.941  0.482E-01  0.482E-01
   2.991  0.477E-01  0.477E-01
   3.041  0.490E-01  0.490E-01
   3.091  0.466E-01  0.466E-01
   3.141  0.459E-01  0.459E-01
   3.191  0.456E-01  0.456E-01
   3.241  0.451E-01  0.451E-01
   3.291  0.442E-01  0.442E-01
   3.341  0.427E-01  0.427E-01
   3.391  0.415E-01  0.415E-01
   3.441  0.405E-01  0.405E-01
   3.491  0.396E-01  0.396E-01
   3.541  0.387E-01  0.387E-01
   3.591  0.377E-01  0.377E-01
   3.641  0.366E-01  0.366E-01
   3.691  0.357E-01  0.357E-01
   3.741  0.346E-01  0.346E-01
   3.791  0.336E-01  0.336E-01
   3.841  0.327E-01  0.327E-01
   3.891  0.318E-01  0.318E-01
   3.941  0.309E-01  0.309E-01
   3.991  0.302E-01  0.302E-01
   4.041  0.295E-01  0.295E-01
   4.091  0.284E-01  0.284E-01
   4.141  0.274E-01  0.274E-01
   4.191  0.262E-01  0.262E-01
   4.241  0.248E-01  0.248E-01
   4.291  0.232E-01  0.232E-01
   4.341  0.220E-01  0.220E-01
   4.391  0.211E-01  0.211E-01
   4.441  0.202E-01  0.202E-01
   4.491  0.190E-01  0.190E-01
   4.541  0.178E-01  0.178E-01
   4.591  0.166E-01  0.166E-01
   4.641  0.158E-01  0.158E-01
   4.691  0.148E-01  0.148E-01
   4.741  0.136E-01  0.136E-01
   4.791  0.127E-01  0.127E-01
   4.841  0.118E-01  0.118E-01
   4.891  0.112E-01  0.112E-01
   4.941  0.107E-01  0.107E-01
   4.991  0.102E-01  0.102E-01
   5.041  0.978E-02  0.978E-02
   5.091  0.932E-02  0.932E-02
   5.141  0.883E-02  0.883E-02
   5.191  0.830E-02  0.830E-02
   5.241  0.772E-02  0.772E-02
   5.291  0.720E-02  0.720E-02
   5.341  0.672E-02  0.672E-02
   5.391  0.623E-02  0.623E-02
   5.441  0.570E-02  0.570E-02
   5.491  0.517E-02  0.517E-02
   5.541  0.463E-02  0.463E-02
   5.591  0.409E-02  0.409E-02
   5.641  0.350E-02  0.350E-02
   5.691  0.290E-02  0.290E-02
   5.741  0.232E-02  0.232E-02
   5.791  0.175E-02  0.175E-02
   5.841  0.123E-02  0.123E-02
   5.891  0.780E-03  0.780E-03
   5.941  0.426E-03  0.426E-03
   5.991  0.173E-03  0.173E-03
   6.041  0.331E-04  0.331E-04
   6.091  0.326E-05  0.326E-05
   6.141  0.551E-06  0.551E-06
   6.191  0.380E-08  0.380E-08
   6.241  0.000E+00  0.000E+00
   6.291  0.000E+00  0.000E+00
   6.341  0.000E+00  0.000E+00
   6.391  0.000E+00  0.000E+00
   6.441  0.000E+00  0.000E+00
   6.491  0.000E+00  0.000E+00
   6.541  0.000E+00  0.000E+00
   6.591  0.000E+00  0.000E+00
   6.641  0.000E+00  0.000E+00
   6.691  0.000E+00  0.000E+00
   6.741  0.000E+00  0.000E+00
   6.791  0.212E-03  0.212E-03
   6.841  0.353E-02  0.353E-02
   6.891  0.107E-01  0.107E-01
   6.941  0.199E-01  0.199E-01
   6.991  0.237E-01  0.237E-01
   7.041  0.290E-01  0.290E-01
   7.091  0.340E-01  0.340E-01
   7.141  0.393E-01  0.393E-01
   7.191  0.443E-01  0.443E-01
   7.241  0.490E-01  0.490E-01
   7.291  0.534E-01  0.534E-01
   7.341  0.581E-01  0.581E-01
   7.391  0.626E-01  0.626E-01
   7.441  0.671E-01  0.671E-01
   7.491  0.721E-01  0.721E-01
   7.541  0.775E-01  0.775E-01
   7.591  0.798E-01  0.798E-01
   7.641  0.809E-01  0.809E-01
   7.691  0.811E-01  0.811E-01
   7.741  0.815E-01  0.815E-01
   7.791  0.849E-01  0.849E-01
   7.841  0.904E-01  0.904E-01
   7.891  0.969E-01  0.969E-01
   7.941  0.104E+00  0.104E+00
   7.991  0.113E+00  0.113E+00
   8.041  0.122E+00  0.122E+00
   8.091  0.132E+00  0.132E+00
   8.141  0.142E+00  0.142E+00
   8.191  0.152E+00  0.152E+00
   8.241  0.165E+00  0.165E+00
   8.291  0.200E+00  0.200E+00
   8.341  0.223E+00  0.223E+00
   8.391  0.235E+00  0.235E+00
   8.441  0.243E+00  0.243E+00
   8.491  0.247E+00  0.247E+00
   8.541  0.252E+00  0.252E+00
   8.591  0.265E+00  0.265E+00
   8.641  0.269E+00  0.269E+00
   8.691  0.258E+00  0.258E+00
   8.741  0.241E+00  0.241E+00
   8.791  0.214E+00  0.214E+00
   8.841  0.159E+00  0.159E+00
   8.891  0.140E+00  0.140E+00
   8.941  0.122E+00  0.122E+00
   8.991  0.109E+00  0.109E+00
   9.041  0.101E+00  0.101E+00
   9.091  0.937E-01  0.937E-01
   9.141  0.864E-01  0.864E-01
   9.191  0.783E-01  0.783E-01
   9.241  0.707E-01  0.707E-01
   9.291  0.670E-01  0.670E-01
   9.341  0.643E-01  0.643E-01
   9.391  0.657E-01  0.657E-01
   9.441  0.689E-01  0.689E-01
   9.491  0.759E-01  0.759E-01
   9.541  0.804E-01  0.804E-01
   9.591  0.889E-01  0.889E-01
   9.641  0.107E+00  0.107E+00
   9.691  0.121E+00  0.121E+00
   9.741  0.143E+00  0.143E+00
   9.791  0.123E+00  0.123E+00
   9.841  0.125E+00  0.125E+00
   9.891  0.128E+00  0.128E+00
   9.941  0.130E+00  0.130E+00
   9.991  0.124E+00  0.124E+00
  10.041  0.116E+00  0.116E+00
  10.091  0.104E+00  0.104E+00
  10.141  0.917E-01  0.917E-01
  10.191  0.833E-01  0.833E-01
  10.241  0.746E-01  0.746E-01
  10.291  0.685E-01  0.685E-01
  10.341  0.650E-01  0.650E-01
  10.391  0.637E-01  0.637E-01
  10.441  0.637E-01  0.637E-01
  10.491  0.663E-01  0.663E-01
  10.541  0.586E-01  0.586E-01
  10.591  0.525E-01  0.525E-01
  10.641  0.499E-01  0.499E-01
  10.691  0.508E-01  0.508E-01
  10.741  0.541E-01  0.541E-01
  10.791  0.718E-01  0.718E-01
  10.841  0.728E-01  0.728E-01
  10.891  0.692E-01  0.692E-01
  10.941  0.676E-01  0.676E-01
  10.991  0.665E-01  0.665E-01
  11.041  0.669E-01  0.669E-01
  11.091  0.907E-01  0.907E-01
  11.141  0.754E-01  0.754E-01
  11.191  0.773E-01  0.773E-01
  11.241  0.109E+00  0.109E+00
  11.291  0.105E+00  0.105E+00
  11.341  0.873E-01  0.873E-01
  11.391  0.858E-01  0.858E-01
  11.441  0.857E-01  0.857E-01
  11.491  0.870E-01  0.870E-01
  11.541  0.866E-01  0.866E-01
  11.591  0.857E-01  0.857E-01
  11.641  0.840E-01  0.840E-01
  11.691  0.781E-01  0.781E-01
  11.741  0.761E-01  0.761E-01
  11.791  0.753E-01  0.753E-01
  11.841  0.749E-01  0.749E-01
  11.891  0.740E-01  0.740E-01
  11.941  0.691E-01  0.691E-01
  11.991  0.654E-01  0.654E-01
  12.041  0.628E-01  0.628E-01
  12.091  0.626E-01  0.626E-01
  12.141  0.592E-01  0.592E-01
  12.191  0.543E-01  0.543E-01
  12.241  0.490E-01  0.490E-01
  12.291  0.450E-01  0.450E-01
  12.341  0.437E-01  0.437E-01
  12.391  0.446E-01  0.446E-01
  12.441  0.457E-01  0.457E-01
  12.491  0.469E-01  0.469E-01
  12.541  0.512E-01  0.512E-01
  12.591  0.564E-01  0.564E-01
  12.641  0.625E-01  0.625E-01
  12.691  0.693E-01  0.693E-01
  12.741  0.632E-01  0.632E-01
  12.791  0.625E-01  0.625E-01
  12.841  0.607E-01  0.607E-01
  12.891  0.584E-01  0.584E-01
  12.941  0.582E-01  0.582E-01
  12.991  0.588E-01  0.588E-01
  13.041  0.572E-01  0.572E-01
  13.091  0.549E-01  0.549E-01
  13.141  0.525E-01  0.525E-01
  13.191  0.498E-01  0.498E-01
  13.241  0.469E-01  0.469E-01
  13.291  0.436E-01  0.436E-01
  13.341  0.392E-01  0.392E-01
  13.391  0.339E-01  0.339E-01
  13.441  0.313E-01  0.313E-01
  13.491  0.284E-01  0.284E-01
  13.541  0.261E-01  0.261E-01
  13.591  0.248E-01  0.248E-01
  13.641  0.237E-01  0.237E-01
  13.691  0.228E-01  0.228E-01
  13.741  0.223E-01  0.223E-01
  13.791  0.213E-01  0.213E-01
  13.841  0.200E-01  0.200E-01
  13.891  0.185E-01  0.185E-01
  13.941  0.171E-01  0.171E-01
  13.991  0.162E-01  0.162E-01
  14.041  0.164E-01  0.164E-01
  14.091  0.167E-01  0.167E-01
  14.141  0.169E-01  0.169E-01
  14.191  0.203E-01  0.203E-01
  14.241  0.122E-01  0.122E-01
  14.291  0.646E-02  0.646E-02
  14.341  0.606E-02  0.606E-02
  14.391  0.568E-02  0.568E-02
  14.441  0.533E-02  0.533E-02
  14.491  0.499E-02  0.499E-02
  14.541  0.469E-02  0.469E-02
  14.591  0.443E-02  0.443E-02
  14.641  0.420E-02  0.420E-02
  14.691  0.401E-02  0.401E-02
  14.741  0.384E-02  0.384E-02
  14.791  0.368E-02  0.368E-02
  14.841  0.363E-02  0.363E-02
  14.891  0.359E-02  0.359E-02
  14.941  0.351E-02  0.351E-02
  14.991  0.342E-02  0.342E-02
  15.041  0.332E-02  0.332E-02
  15.091  0.326E-02  0.326E-02
  15.141  0.320E-02  0.320E-02
  15.191  0.309E-02  0.309E-02
  15.241  0.294E-02  0.294E-02
  15.291  0.253E-02  0.253E-02
  15.341  0.149E-02  0.149E-02
  15.391  0.644E-03  0.644E-03
  15.441  0.544E-03  0.544E-03
  15.491  0.455E-03  0.455E-03
  15.541  0.376E-03  0.376E-03
  15.591  0.307E-03  0.307E-03
  15.641  0.246E-03  0.246E-03
  15.691  0.195E-03  0.195E-03
  15.741  0.151E-03  0.151E-03
  15.791  0.114E-03  0.114E-03
  15.841  0.839E-04  0.839E-04
  15.891  0.595E-04  0.595E-04
  15.941  0.404E-04  0.404E-04
  15.991  0.259E-04  0.259E-04
  16.041  0.153E-04  0.153E-04
  16.091  0.814E-05  0.814E-05
  16.141  0.364E-05  0.364E-05
  16.191  0.121E-05  0.121E-05
  16.241  0.207E-06  0.207E-06
  16.291  0.167E-08  0.167E-08
  16.341  0.000E+00  0.000E+00
